!FRM4SOC_CP
!TEMPDATA
# thermal characterization results

# comments start with # (ignored by the processor)
# no empty lines between the parameter signatures in [] and the parameter values
# parameters are case insensitive
# parameters can be inserted in any order, except the first two signatures
# columns are tab- or space-delimited

[VERSION]
0.1

[CALDATE]
2023-04-25 16:38:26

[CALLAB]
Tartu Observatory

[USER]
Ilmar Ansko

[DEVICE]
SAM_8595

[AMBIENT_TEMP]
21.0

[REFERENCE_TEMP]
20.0

#px	wl (nm)	cT (1/deg)	ucT (1/deg, k=2)
[CALDATA]
0	302.16	0.000E+000	0.000E+000
1	305.49	2.245E-003	2.221E-003
2	308.83	2.520E-003	1.842E-003
3	312.16	-1.175E-003	1.523E-003
4	315.49	-1.088E-003	1.950E-003
5	318.83	2.816E-003	1.805E-003
6	322.16	1.593E-003	1.565E-003
7	325.50	6.355E-004	1.462E-003
8	328.83	-5.868E-004	8.450E-004
9	332.17	-7.270E-005	1.021E-003
10	335.50	3.778E-004	5.745E-004
11	338.84	-1.496E-004	4.998E-004
12	342.18	-3.052E-004	3.455E-004
13	345.51	-2.951E-004	4.486E-004
14	348.85	-1.721E-005	3.563E-004
15	352.19	-6.833E-005	3.037E-004
16	355.53	-2.549E-005	2.853E-004
17	358.87	4.978E-005	3.059E-004
18	362.20	1.132E-004	2.752E-004
19	365.54	7.324E-005	2.581E-004
20	368.88	9.535E-005	2.681E-004
21	372.22	-7.137E-007	2.486E-004
22	375.56	-7.705E-005	2.592E-004
23	378.91	-1.176E-004	2.537E-004
24	382.25	-1.282E-004	2.516E-004
25	385.59	-1.302E-004	2.488E-004
26	388.93	-1.311E-004	2.495E-004
27	392.27	-1.117E-004	2.472E-004
28	395.61	-9.937E-005	2.532E-004
29	398.96	-7.348E-005	2.406E-004
30	402.30	-6.769E-005	2.458E-004
31	405.64	-5.620E-005	2.392E-004
32	408.98	-3.817E-005	2.392E-004
33	412.33	-2.798E-005	2.385E-004
34	415.67	-1.726E-005	2.358E-004
35	419.01	-1.066E-005	2.356E-004
36	422.36	-4.079E-006	2.373E-004
37	425.70	9.418E-006	2.338E-004
38	429.05	1.995E-005	2.352E-004
39	432.39	1.848E-005	2.340E-004
40	435.73	2.122E-005	2.322E-004
41	439.08	1.206E-005	2.319E-004
42	442.42	1.923E-005	2.317E-004
43	445.77	4.206E-005	2.325E-004
44	449.11	8.993E-005	2.318E-004
45	452.46	1.351E-004	2.290E-004
46	455.80	1.688E-004	2.299E-004
47	459.15	1.847E-004	2.276E-004
48	462.49	1.902E-004	2.270E-004
49	465.83	1.830E-004	2.293E-004
50	469.18	1.657E-004	2.268E-004
51	472.52	1.606E-004	2.267E-004
52	475.87	1.621E-004	2.254E-004
53	479.21	2.046E-004	2.267E-004
54	482.56	2.673E-004	2.254E-004
55	485.90	3.428E-004	2.253E-004
56	489.25	4.028E-004	2.246E-004
57	492.59	4.430E-004	2.241E-004
58	495.94	4.703E-004	2.224E-004
59	499.28	4.933E-004	2.220E-004
60	502.63	5.127E-004	2.224E-004
61	505.97	5.243E-004	2.213E-004
62	509.31	5.369E-004	2.209E-004
63	512.66	5.441E-004	2.218E-004
64	516.00	5.499E-004	2.200E-004
65	519.35	5.530E-004	2.191E-004
66	522.69	5.556E-004	2.193E-004
67	526.03	5.537E-004	2.192E-004
68	529.38	5.470E-004	2.186E-004
69	532.72	5.500E-004	2.199E-004
70	536.06	5.636E-004	2.195E-004
71	539.40	5.993E-004	2.196E-004
72	542.75	6.559E-004	2.200E-004
73	546.09	7.172E-004	2.203E-004
74	549.43	7.722E-004	2.184E-004
75	552.77	8.048E-004	2.185E-004
76	556.11	8.271E-004	2.174E-004
77	559.45	8.377E-004	2.170E-004
78	562.79	8.466E-004	2.170E-004
79	566.13	8.567E-004	2.165E-004
80	569.47	8.623E-004	2.161E-004
81	572.81	8.732E-004	2.158E-004
82	576.15	8.718E-004	2.155E-004
83	579.49	8.822E-004	2.158E-004
84	582.83	8.848E-004	2.159E-004
85	586.17	8.935E-004	2.151E-004
86	589.51	8.951E-004	2.159E-004
87	592.85	8.934E-004	2.151E-004
88	596.18	8.853E-004	2.160E-004
89	599.52	8.656E-004	2.150E-004
90	602.86	8.501E-004	2.155E-004
91	606.19	8.310E-004	2.148E-004
92	609.53	8.163E-004	2.159E-004
93	612.86	8.029E-004	2.155E-004
94	616.20	8.201E-004	2.166E-004
95	619.53	8.527E-004	2.158E-004
96	622.86	9.194E-004	2.177E-004
97	626.20	9.939E-004	2.167E-004
98	629.53	1.082E-003	2.174E-004
99	632.86	1.154E-003	2.157E-004
100	636.19	1.215E-003	2.156E-004
101	639.52	1.258E-003	2.146E-004
102	642.85	1.291E-003	2.139E-004
103	646.18	1.316E-003	2.140E-004
104	649.51	1.338E-003	2.138E-004
105	652.84	1.362E-003	2.134E-004
106	656.17	1.383E-003	2.141E-004
107	659.50	1.405E-003	2.133E-004
108	662.82	1.426E-003	2.125E-004
109	666.15	1.454E-003	2.125E-004
110	669.48	1.473E-003	2.121E-004
111	672.80	1.493E-003	2.117E-004
112	676.13	1.516E-003	2.112E-004
113	679.45	1.539E-003	2.112E-004
114	682.77	1.557E-003	2.112E-004
115	686.09	1.579E-003	2.107E-004
116	689.42	1.599E-003	2.108E-004
117	692.74	1.620E-003	2.106E-004
118	696.06	1.636E-003	2.115E-004
119	699.38	1.644E-003	2.120E-004
120	702.69	1.651E-003	2.131E-004
121	706.01	1.658E-003	2.142E-004
122	709.33	1.669E-003	2.138E-004
123	712.65	1.676E-003	2.148E-004
124	715.96	1.688E-003	2.132E-004
125	719.28	1.709E-003	2.131E-004
126	722.59	1.726E-003	2.121E-004
127	725.90	1.738E-003	2.120E-004
128	729.22	1.732E-003	2.121E-004
129	732.53	1.713E-003	2.124E-004
130	735.84	1.692E-003	2.113E-004
131	739.15	1.697E-003	2.126E-004
132	742.46	1.726E-003	2.114E-004
133	745.76	1.769E-003	2.119E-004
134	749.07	1.824E-003	2.114E-004
135	752.38	1.888E-003	2.121E-004
136	755.68	1.952E-003	2.108E-004
137	758.99	2.039E-003	2.117E-004
138	762.29	2.140E-003	2.096E-004
139	765.59	2.254E-003	2.087E-004
140	768.89	2.365E-003	2.075E-004
141	772.19	2.471E-003	2.073E-004
142	775.49	2.577E-003	2.060E-004
143	778.79	2.678E-003	2.071E-004
144	782.09	2.762E-003	2.068E-004
145	785.39	2.844E-003	2.061E-004
146	788.68	2.918E-003	2.071E-004
147	791.98	2.988E-003	2.077E-004
148	795.27	3.056E-003	2.081E-004
149	798.56	3.120E-003	2.075E-004
150	801.85	3.183E-003	2.079E-004
151	805.14	3.234E-003	2.068E-004
152	808.43	3.285E-003	2.070E-004
153	811.72	3.330E-003	2.069E-004
154	815.01	3.373E-003	2.050E-004
155	818.29	3.400E-003	2.051E-004
156	821.58	3.414E-003	2.052E-004
157	824.86	3.410E-003	2.054E-004
158	828.14	3.372E-003	2.039E-004
159	831.42	3.327E-003	2.051E-004
160	834.70	3.297E-003	2.047E-004
161	837.98	3.294E-003	2.049E-004
162	841.26	3.323E-003	2.036E-004
163	844.54	3.353E-003	2.025E-004
164	847.81	3.406E-003	2.030E-004
165	851.08	3.451E-003	2.018E-004
166	854.36	3.498E-003	2.033E-004
167	857.63	3.557E-003	2.023E-004
168	860.90	3.621E-003	2.019E-004
169	864.17	3.689E-003	2.021E-004
170	867.43	3.750E-003	2.018E-004
171	870.70	3.820E-003	2.015E-004
172	873.97	3.898E-003	2.017E-004
173	877.23	3.978E-003	2.013E-004
174	880.49	4.065E-003	2.020E-004
175	883.75	4.160E-003	2.013E-004
176	887.01	4.231E-003	2.030E-004
177	890.27	4.302E-003	2.019E-004
178	893.53	4.375E-003	2.023E-004
179	896.78	4.424E-003	2.031E-004
180	900.04	4.478E-003	2.042E-004
181	903.29	4.511E-003	2.030E-004
182	906.54	4.523E-003	2.023E-004
183	909.79	4.538E-003	2.023E-004
184	913.04	4.498E-003	2.037E-004
185	916.29	4.474E-003	2.023E-004
186	919.53	4.373E-003	2.040E-004
187	922.78	4.248E-003	2.041E-004
188	926.02	4.021E-003	2.067E-004
189	929.26	3.750E-003	2.116E-004
190	932.50	3.438E-003	2.160E-004
191	935.74	3.084E-003	2.189E-004
192	938.97	2.675E-003	2.252E-004
193	942.21	2.293E-003	2.307E-004
194	945.44	1.875E-003	2.372E-004
195	948.67	1.369E-003	2.240E-004
196	951.90	6.977E-004	2.304E-004
197	955.13	6.876E-005	2.439E-004
198	958.36	-4.790E-004	2.347E-004
199	961.59	-8.067E-004	2.455E-004
200	964.81	-7.508E-004	2.271E-004
201	968.03	-4.246E-004	2.499E-004
202	971.25	6.813E-005	2.353E-004
203	974.47	7.235E-004	2.369E-004
204	977.69	1.344E-003	2.250E-004
205	980.90	2.105E-003	2.476E-004
206	984.12	2.824E-003	2.579E-004
207	987.33	3.589E-003	2.738E-004
208	990.54	4.373E-003	2.987E-004
209	993.75	5.156E-003	3.339E-004
210	996.96	5.870E-003	3.321E-004
211	1000.16	6.370E-003	3.367E-004
212	1003.37	7.126E-003	4.038E-004
213	1006.57	7.627E-003	3.670E-004
214	1009.77	8.212E-003	3.731E-004
215	1012.97	8.703E-003	4.254E-004
216	1016.16	9.051E-003	4.650E-004
217	1019.36	9.115E-003	6.062E-004
218	1022.55	9.681E-003	4.918E-004
219	1025.74	9.735E-003	5.530E-004
220	1028.93	9.522E-003	6.122E-004
221	1032.12	9.773E-003	6.000E-004
222	1035.31	1.007E-002	7.679E-004
223	1038.49	9.634E-003	5.398E-004
224	1041.67	9.301E-003	8.100E-004
225	1044.85	9.459E-003	1.032E-003
226	1048.03	8.261E-003	1.148E-003
227	1051.21	7.452E-003	1.496E-003
228	1054.38	5.794E-003	1.712E-003
229	1057.55	5.275E-003	1.945E-003
230	1060.72	4.851E-003	3.344E-003
231	1063.89	4.226E-003	3.103E-003
232	1067.06	5.199E-003	5.044E-003
233	1070.22	4.809E-003	4.113E-003
234	1073.39	7.054E-003	5.749E-003
235	1076.55	3.114E-003	6.913E-003
236	1079.71	6.182E-003	1.117E-002
237	1082.86	5.902E-003	1.003E-002
238	1086.02	1.571E-002	1.209E-002
239	1089.17	1.018E-002	2.201E-002
240	1092.32	1.647E-002	2.072E-002
241	1095.47	7.844E-004	1.021E-001
242	1098.62	8.607E-004	6.009E-002
243	1101.76	6.930E-002	1.111E-001
244	1104.90	2.021E-002	8.611E-002
245	1108.04	2.554E-002	4.465E-002
246	1111.18	1.365E-002	5.580E-002
247	1114.32	-4.258E-002	3.060E-002
248	1117.45	-8.447E-003	3.899E-002
249	1120.58	-5.123E-003	2.751E-002
250	1123.71	2.834E-002	2.736E-002
251	1126.84	5.320E-003	3.746E-002
252	1129.97	1.970E-002	3.189E-002
253	1133.09	2.598E-002	2.950E-002
254	1136.21	1.893E-002	2.296E-002
255	1139.33	-3.387E-001	1.604E-001
[END_OF_CALDATA]
