!FRM4SOC_CP
!RADCAL
# radiometric calibration coefs & linearity, lamp and panel data

# comments start with # (ignored by the processor)
# no empty lines between the parameter signatures in [] and the parameter values
# parameters are case insensitive
# parameters can be inserted in any order, except the first two signatures
# columns are tab- or space-delimited

[VERSION]
0.1

[CALDATE]
2022-07-08 09:52:36

[CALLAB]
Tartu Observatory

[USER]
Riho Vendt

[LAMP_ID]
TO_7

[PANEL_ID]
SG3151_2019

[DEVICE]
SAM_8329

# Correlated color temperature (K)
[LAMP_CCT]
2972.0

# wavelength (nm)	bandwidth (nm)	irradiane (mW/m2/nm)	uncertainty (%, k=2)
[LAMPDATA]
300.00	0.00	1.3604	2.49
310.00	0.00	1.9255	2.12
320.00	0.00	2.6490	1.94
330.00	0.00	3.5525	1.94
340.00	0.00	4.6565	1.93
350.00	0.00	6.0017	1.93
360.00	0.00	7.6133	1.92
370.00	0.00	9.4994	1.92
380.00	0.00	11.6728	1.92
390.00	0.00	14.1421	1.84
400.00	0.00	16.8726	1.77
410.00	0.00	19.9123	1.69
420.00	0.00	23.2544	1.62
430.00	0.00	26.8917	1.55
440.00	0.00	30.8167	1.48
450.00	0.00	35.0184	1.47
460.00	0.00	39.4672	1.47
470.00	0.00	44.1590	1.47
480.00	0.00	49.0745	1.47
490.00	0.00	54.1920	1.47
500.00	0.00	59.4670	1.47
510.00	0.00	64.8774	1.46
520.00	0.00	70.4095	1.46
530.00	0.00	76.0369	1.46
540.00	0.00	81.7328	1.46
550.00	0.00	87.4698	1.46
560.00	0.00	93.1928	1.46
570.00	0.00	98.9033	1.46
580.00	0.00	104.5780	1.46
590.00	0.00	110.1949	1.45
600.00	0.00	115.7340	1.45
610.00	0.00	121.1247	1.45
620.00	0.00	126.3994	1.45
630.00	0.00	131.5449	1.45
640.00	0.00	136.5501	1.45
650.00	0.00	141.4061	1.45
660.00	0.00	146.1062	1.45
670.00	0.00	150.6452	1.45
680.00	0.00	155.0201	1.45
690.00	0.00	159.2290	1.45
700.00	0.00	163.2713	1.45
710.00	0.00	167.1474	1.44
720.00	0.00	170.7867	1.44
730.00	0.00	174.2514	1.44
740.00	0.00	177.5502	1.44
750.00	0.00	180.6841	1.44
760.00	0.00	183.6534	1.44
770.00	0.00	186.4578	1.44
780.00	0.00	189.0957	1.44
790.00	0.00	191.5645	1.44
800.00	0.00	193.8562	1.44
810.00	0.00	195.9277	1.44
820.00	0.00	197.8135	1.44
830.00	0.00	199.5058	1.44
840.00	0.00	200.9959	1.44
850.00	0.00	202.3301	1.44
860.00	0.00	203.4441	1.44
870.00	0.00	204.3257	1.44
880.00	0.00	204.9645	1.44
890.00	0.00	205.2533	1.44
900.00	0.00	205.2787	1.44
910.00	0.00	204.6042	3.50
920.00	0.00	204.7595	3.50
930.00	0.00	204.7904	3.50
940.00	0.00	204.7058	3.50
950.00	0.00	204.6300	3.50
960.00	0.00	204.4449	3.50
970.00	0.00	204.1556	3.50
980.00	0.00	203.7671	3.50
990.00	0.00	202.4842	3.50
1000.00	0.00	201.1088	3.50
[END_OF_LAMPDATA]

[AMBIENT_TEMP]
21.0

# pixel no	wavelength (nm)	irradiane responsivity (unit depends on the device class)	uncertainty (%, k=2)	dark1	dark2 (content depends on the instrument class)	raw1	stdev1	raw2	stdev2
[CALDATA]
0	302.08	6	0.00	12	0.000000	256	0.00	128	0.00
1	305.42	0.000000	0.00	0.014806	0.012873	76.38	0.90	75.45	1.43
2	308.75	0.000000	0.00	0.014678	0.012781	92.04	0.76	92.18	1.26
3	312.08	0.000000	0.00	0.014723	0.012895	119.21	0.72	118.25	1.48
4	315.41	0.000000	0.00	0.014808	0.012756	161.51	0.79	158.71	1.33
5	318.75	0.000000	0.00	0.014781	0.012852	212.08	0.77	211.91	1.22
6	322.08	0.000000	0.00	0.014755	0.012924	273.18	0.83	273.25	1.47
7	325.42	0.000000	0.00	0.014710	0.012891	340.18	0.69	341.78	1.29
8	328.75	0.000000	0.00	0.014766	0.012715	414.94	0.80	415.05	1.20
9	332.09	0.000000	0.00	0.014739	0.012751	502.21	0.65	500.18	1.73
10	335.43	0.000000	0.00	0.014777	0.012917	603.48	0.68	599.91	1.26
11	338.76	0.000000	0.00	0.014742	0.012923	721.91	0.78	722.58	1.54
12	342.10	0.000000	0.00	0.014739	0.012812	867.88	0.75	866.58	1.27
13	345.44	0.000000	0.00	0.014733	0.012990	1047.01	0.73	1044.58	1.40
14	348.78	0.000000	0.00	0.014764	0.012895	1262.71	0.80	1262.85	1.57
15	352.12	0.117164	2.21	0.014747	0.012806	1519.11	0.67	1517.91	1.31
16	355.46	0.129041	2.20	0.014784	0.012969	1813.84	0.76	1811.85	1.55
17	358.80	0.140551	2.19	0.014740	0.013008	2129.84	0.72	2130.71	1.41
18	362.14	0.149168	2.18	0.014770	0.012924	2443.34	0.80	2442.58	1.19
19	365.48	0.154871	2.18	0.014728	0.012775	2727.01	0.88	2729.25	1.53
20	368.82	0.156002	2.18	0.014776	0.012727	2966.11	0.77	2962.65	1.34
21	372.16	0.154649	2.17	0.014762	0.013080	3150.01	0.80	3149.85	1.32
22	375.51	0.151537	2.17	0.014779	0.012801	3305.74	0.83	3306.98	1.22
23	378.85	0.147687	2.17	0.014760	0.012795	3452.98	0.73	3451.65	1.60
24	382.19	0.144716	2.15	0.014772	0.012852	3619.74	0.67	3616.05	1.23
25	385.54	0.143603	2.14	0.014748	0.012844	3818.31	0.87	3821.18	1.73
26	388.88	0.143044	2.11	0.014787	0.012905	4063.64	0.78	4060.58	1.55
27	392.22	0.144505	2.09	0.014750	0.012930	4364.64	0.78	4361.11	1.45
28	395.57	0.147319	2.06	0.014777	0.012836	4715.14	0.84	4714.98	1.39
29	398.91	0.150519	2.04	0.014740	0.013103	5110.01	0.83	5107.71	1.60
30	402.26	0.155101	2.02	0.014769	0.012916	5573.34	0.89	5571.45	1.68
31	405.61	0.161634	2.00	0.014763	0.012909	6136.31	0.78	6136.85	1.63
32	408.95	0.169654	1.97	0.014797	0.012799	6800.68	0.66	6801.85	1.23
33	412.30	0.179020	1.95	0.014772	0.012706	7570.28	0.88	7571.45	1.75
34	415.65	0.189833	1.93	0.014804	0.013011	8462.88	0.87	8461.98	1.64
35	418.99	0.201986	1.91	0.014767	0.012892	9472.84	0.90	9473.78	1.70
36	422.34	0.215199	1.89	0.014790	0.013129	10604.04	0.83	10608.31	1.94
37	425.69	0.228813	1.87	0.014777	0.012930	11836.21	0.89	11843.25	1.57
38	429.03	0.241875	1.84	0.014792	0.013176	13128.31	0.99	13134.65	1.67
39	432.38	0.253566	1.82	0.014759	0.012700	14423.28	1.07	14430.45	1.85
40	435.73	0.263054	1.80	0.014802	0.013105	15667.68	1.04	15674.51	1.51
41	439.08	0.269519	1.78	0.014740	0.012829	16781.31	1.08	16792.78	1.58
42	442.43	0.272779	1.78	0.014800	0.013075	17751.81	1.03	17762.05	1.67
43	445.78	0.273032	1.78	0.014795	0.012939	18533.01	1.12	18552.18	1.59
44	449.13	0.271513	1.78	0.014793	0.013093	19228.34	1.40	19245.31	1.86
45	452.48	0.268067	1.77	0.014777	0.012930	19779.11	1.09	19798.18	1.66
46	455.83	0.263644	1.77	0.014813	0.012996	20246.34	1.07	20268.85	1.91
47	459.17	0.258685	1.77	0.014785	0.012998	20664.14	1.28	20686.91	2.16
48	462.52	0.253841	1.77	0.014797	0.012770	21065.34	1.24	21093.78	1.64
49	465.87	0.248751	1.77	0.014784	0.012967	21440.68	1.19	21468.58	1.60
50	469.22	0.243243	1.77	0.014823	0.012882	21747.94	1.33	21780.38	1.71
51	472.57	0.237174	1.77	0.014783	0.012714	21984.08	1.15	22019.25	2.06
52	475.92	0.230898	1.77	0.014809	0.012941	22164.78	1.33	22206.05	2.00
53	479.27	0.224819	1.77	0.014784	0.012711	22352.58	1.12	22390.18	2.17
54	482.63	0.220133	1.77	0.014815	0.012858	22639.84	1.22	22680.85	1.72
55	485.98	0.216775	1.77	0.014805	0.013090	23045.14	1.58	23089.91	1.93
56	489.33	0.214770	1.77	0.014796	0.012995	23572.28	1.39	23627.05	1.73
57	492.68	0.213977	1.77	0.014782	0.013111	24246.11	1.51	24303.05	1.66
58	496.03	0.214305	1.77	0.014829	0.013059	25046.88	1.32	25109.31	2.28
59	499.38	0.215983	1.76	0.014790	0.013062	26015.58	1.46	26086.11	2.00
60	502.73	0.219122	1.76	0.014833	0.012943	27182.91	1.40	27262.85	1.86
61	506.08	0.223606	1.76	0.014778	0.012858	28538.54	1.34	28634.98	1.89
62	509.43	0.229087	1.76	0.014835	0.012909	30071.81	1.60	30181.65	2.36
63	512.78	0.235211	1.76	0.014801	0.012947	31725.08	1.52	31856.25	2.28
64	516.13	0.240839	1.76	0.014810	0.012972	33369.81	1.60	33518.05	2.25
65	519.48	0.245554	1.76	0.014808	0.012833	34923.14	1.63	35092.65	2.13
66	522.83	0.249249	1.76	0.014843	0.013018	36380.24	1.73	36565.05	2.68
67	526.18	0.252176	1.76	0.014805	0.013064	37742.31	1.95	37948.45	2.30
68	529.53	0.254767	1.76	0.014835	0.012942	39083.98	1.69	39308.91	2.35
69	532.88	0.257467	1.76	0.014793	0.012953	40466.24	1.80	40710.78	2.49
70	536.23	0.260112	1.76	0.014848	0.012896	41857.24	1.69	42124.78	2.57
71	539.58	0.262935	1.76	0.014830	0.012981	43297.58	1.70	43589.98	2.32
72	542.93	0.265471	1.76	0.014843	0.012942	44706.91	1.77	45027.65	2.45
73	546.28	0.267377	1.76	0.014803	0.012978	46042.08	1.57	46384.18	2.47
74	549.63	0.268815	1.76	0.014849	0.012961	47297.11	2.06	47666.91	2.87
75	552.98	0.269649	1.75	0.014826	0.012928	48442.24	2.09	48843.51	2.97
76	556.33	0.269529	1.75	0.014836	0.012947	49443.44	1.88	49862.25	2.61
77	559.68	0.268845	1.75	0.014826	0.012970	50327.58	2.13	50767.98	2.87
78	563.02	0.267601	1.75	0.014844	0.012863	51094.44	2.09	51557.78	2.46
79	566.37	0.265738	1.75	0.014809	0.013102	51732.84	2.08	52216.31	2.92
80	569.72	0.263385	1.75	0.014841	0.012907	52266.91	1.83	52764.91	2.94
81	573.07	0.260495	1.75	0.014810	0.013066	52659.01	2.19	53177.05	3.07
82	576.42	0.256661	1.75	0.014850	0.012955	52844.24	2.00	53373.98	3.03
83	579.76	0.252074	1.75	0.014811	0.013177	52855.81	1.98	53387.05	2.39
84	583.11	0.246518	1.75	0.014850	0.012952	52620.64	2.19	53151.91	3.22
85	586.46	0.240870	1.75	0.014816	0.012964	52311.18	2.24	52846.05	3.18
86	589.80	0.236338	1.75	0.014843	0.013053	52203.54	2.05	52743.25	2.49
87	593.15	0.233007	1.75	0.014841	0.013055	52311.71	2.05	52866.58	2.95
88	596.50	0.230342	1.75	0.014842	0.013076	52550.71	1.93	53117.85	2.84
89	599.84	0.228079	1.75	0.014835	0.012980	52843.88	2.12	53431.31	2.73
90	603.19	0.225328	1.75	0.014859	0.013186	53016.34	2.18	53611.05	2.64
91	606.53	0.221769	1.75	0.014812	0.012980	52956.01	2.03	53562.38	2.88
92	609.88	0.217128	1.75	0.014865	0.012926	52617.31	2.58	53224.45	2.91
93	613.22	0.211359	1.75	0.014813	0.013190	51984.38	2.34	52577.78	2.91
94	616.57	0.204873	1.75	0.014858	0.013121	51145.08	2.14	51712.51	2.84
95	619.91	0.198350	1.75	0.014820	0.013049	50220.51	2.08	50773.25	3.19
96	623.25	0.191931	1.75	0.014845	0.013278	49289.81	2.07	49818.65	2.40
97	626.59	0.186024	1.75	0.014825	0.013087	48429.98	2.31	48941.78	2.20
98	629.94	0.180913	1.75	0.014856	0.012945	47728.88	2.09	48227.51	2.57
99	633.28	0.176394	1.75	0.014829	0.012855	47141.18	2.18	47630.31	3.03
100	636.62	0.172592	1.74	0.014858	0.013183	46715.64	1.88	47194.71	2.66
101	639.96	0.169605	1.74	0.014839	0.013003	46457.81	2.03	46940.71	2.69
102	643.30	0.167113	1.74	0.014847	0.012957	46332.48	1.82	46810.31	2.77
103	646.64	0.165285	1.74	0.014830	0.012924	46364.08	1.81	46842.05	2.48
104	649.98	0.163285	1.74	0.014869	0.013088	46325.81	1.85	46804.71	2.77
105	653.32	0.160516	1.74	0.014828	0.012908	46052.91	1.64	46528.51	2.77
106	656.66	0.157415	1.74	0.014872	0.013214	45657.81	1.86	46129.85	2.66
107	660.00	0.154627	1.74	0.014822	0.012928	45333.01	1.78	45800.11	2.92
108	663.33	0.152317	1.74	0.014856	0.012973	45126.48	1.81	45590.71	2.14
109	666.67	0.150672	1.74	0.014837	0.013072	45088.78	1.98	45556.78	2.62
110	670.01	0.149664	1.74	0.014861	0.013062	45229.41	2.05	45702.18	2.59
111	673.34	0.149028	1.74	0.014829	0.012989	45466.41	1.73	45948.38	2.66
112	676.68	0.148654	1.74	0.014854	0.013219	45778.74	1.91	46268.38	2.63
113	680.01	0.148259	1.74	0.014830	0.013054	46064.04	1.88	46567.18	2.81
114	683.35	0.147669	1.74	0.014863	0.013053	46285.88	1.92	46799.91	2.64
115	686.68	0.146906	1.74	0.014827	0.013026	46458.48	2.06	46975.05	2.54
116	690.01	0.145973	1.74	0.014867	0.012881	46561.81	2.05	47082.31	2.43
117	693.35	0.144945	1.74	0.014827	0.012831	46617.61	2.00	47145.71	2.71
118	696.68	0.144118	1.74	0.014867	0.013022	46733.34	1.90	47266.31	2.17
119	700.01	0.143476	1.74	0.014834	0.012881	46891.98	1.99	47433.85	2.45
120	703.34	0.143044	1.74	0.014868	0.013025	47121.01	2.14	47668.38	2.01
121	706.67	0.143002	1.74	0.014824	0.013043	47453.38	1.73	48016.51	2.94
122	710.00	0.143152	1.74	0.014869	0.013029	47851.74	2.10	48427.11	2.64
123	713.32	0.143425	1.74	0.014836	0.013075	48277.11	2.15	48867.65	2.58
124	716.65	0.143758	1.74	0.014865	0.013196	48720.24	2.02	49324.91	2.50
125	719.98	0.143895	1.74	0.014842	0.013182	49088.91	2.17	49708.05	2.47
126	723.30	0.143774	1.74	0.014871	0.013064	49371.78	2.22	50001.45	2.79
127	726.63	0.143358	1.74	0.014846	0.012999	49556.21	2.02	50189.58	2.64
128	729.95	0.142585	1.74	0.014854	0.013144	49601.41	2.01	50239.98	2.73
129	733.28	0.141430	1.74	0.014835	0.013020	49509.84	1.94	50150.18	2.31
130	736.60	0.140076	1.74	0.014883	0.012889	49349.04	2.21	49984.05	2.93
131	739.92	0.138443	1.74	0.014833	0.013117	49079.34	2.06	49706.38	3.10
132	743.24	0.136838	1.74	0.014884	0.013000	48790.41	2.32	49419.05	2.79
133	746.56	0.135080	1.74	0.014822	0.012991	48459.44	1.81	49076.25	3.10
134	749.88	0.133403	1.74	0.014867	0.013069	48129.14	2.08	48741.65	2.14
135	753.20	0.131664	1.74	0.014850	0.012972	47772.01	1.93	48377.31	2.75
136	756.52	0.129824	1.74	0.014872	0.013059	47373.91	1.82	47967.18	2.59
137	759.84	0.127842	1.74	0.014840	0.012972	46907.21	1.84	47489.18	2.61
138	763.15	0.125754	1.74	0.014868	0.013239	46383.08	1.92	46957.25	2.59
139	766.47	0.123507	1.74	0.014835	0.013010	45798.58	1.98	46358.18	2.73
140	769.78	0.121057	1.73	0.014866	0.012974	45132.58	1.87	45672.38	2.48
141	773.10	0.118532	1.73	0.014838	0.013045	44415.48	1.68	44940.71	2.71
142	776.41	0.115877	1.73	0.014868	0.013089	43642.78	1.58	44149.18	2.44
143	779.72	0.113015	1.73	0.014823	0.012874	42771.84	1.68	43260.91	2.73
144	783.03	0.109968	1.73	0.014863	0.013148	41828.14	1.52	42293.91	2.84
145	786.34	0.106799	1.73	0.014827	0.013149	40814.28	1.71	41260.45	2.72
146	789.65	0.103520	1.73	0.014863	0.012914	39747.21	1.78	40171.31	2.36
147	792.96	0.100248	1.73	0.014837	0.013082	38672.41	1.71	39072.45	2.53
148	796.27	0.097018	1.73	0.014854	0.013227	37596.98	1.71	37974.38	2.50
149	799.57	0.093873	1.73	0.014829	0.013118	36537.28	1.45	36893.98	2.40
150	802.88	0.090851	1.73	0.014874	0.013068	35513.81	1.71	35848.51	2.13
151	806.18	0.087927	1.73	0.014836	0.012996	34510.11	1.65	34826.45	2.34
152	809.48	0.085106	1.73	0.014853	0.013254	33529.38	1.75	33830.31	2.26
153	812.79	0.082390	1.73	0.014827	0.013079	32577.58	1.48	32864.31	2.07
154	816.09	0.079652	1.73	0.014873	0.013111	31612.11	1.69	31881.91	2.02
155	819.39	0.076916	1.73	0.014832	0.013126	30631.14	1.37	30886.85	2.36
156	822.69	0.074168	1.73	0.014849	0.013069	29651.88	1.32	29885.18	1.99
157	825.98	0.071413	1.73	0.014830	0.013115	28639.84	1.73	28860.91	2.10
158	829.28	0.068623	1.73	0.014851	0.012957	27608.61	1.37	27815.25	2.36
159	832.58	0.065844	1.73	0.014841	0.013165	26572.74	1.16	26764.78	2.26
160	835.87	0.063050	1.73	0.014864	0.013078	25522.78	1.24	25699.78	2.02
161	839.16	0.060308	1.73	0.014834	0.013030	24482.21	1.22	24646.25	1.53
162	842.46	0.057668	1.73	0.014827	0.013033	23475.81	1.35	23627.18	1.68
163	845.75	0.055126	1.73	0.014827	0.013035	22497.44	1.17	22638.98	1.76
164	849.04	0.052696	1.73	0.014868	0.013077	21565.38	1.41	21693.78	1.71
165	852.32	0.050458	1.73	0.014834	0.012942	20699.58	1.21	20818.05	1.66
166	855.61	0.048322	1.73	0.014858	0.012950	19871.24	1.30	19979.11	1.85
167	858.90	0.046394	1.73	0.014835	0.013203	19120.38	1.18	19219.71	1.70
168	862.18	0.044638	1.73	0.014859	0.013058	18425.48	0.89	18521.31	1.72
169	865.47	0.042973	1.73	0.014805	0.012871	17768.94	1.33	17858.78	1.88
170	868.75	0.041458	1.73	0.014834	0.013016	17173.64	1.27	17256.71	1.75
171	872.03	0.040055	1.73	0.014820	0.013005	16612.51	1.11	16692.58	1.85
172	875.31	0.038729	1.73	0.014837	0.013166	16084.64	1.14	16159.78	1.55
173	878.59	0.037493	1.73	0.014807	0.012970	15589.01	1.09	15660.38	1.79
174	881.87	0.036306	1.73	0.014862	0.012939	15112.18	1.08	15178.38	1.63
175	885.14	0.035178	1.73	0.014816	0.013099	14643.18	1.12	14710.91	1.81
176	888.42	0.034054	1.73	0.014855	0.012793	14185.81	0.97	14249.11	1.80
177	891.69	0.032929	1.73	0.014827	0.012912	13731.84	0.83	13787.25	1.88
178	894.96	0.031832	1.73	0.014849	0.013053	13269.74	1.07	13326.25	1.81
179	898.24	0.030684	1.73	0.014824	0.012931	12801.34	0.94	12850.71	1.90
180	901.51	0.000000	0.00	0.014837	0.013049	12330.84	1.12	12376.58	2.02
181	904.77	0.000000	0.00	0.014823	0.013078	11851.98	0.85	11897.05	1.68
182	908.04	0.000000	0.00	0.014841	0.013010	11384.28	1.04	11424.58	1.41
183	911.31	0.000000	0.00	0.014823	0.012958	10921.58	0.94	10957.85	1.71
184	914.57	0.000000	0.00	0.014846	0.013076	10458.91	0.78	10495.58	1.39
185	917.83	0.000000	0.00	0.014823	0.013092	10008.91	0.87	10041.11	1.93
186	921.09	0.000000	0.00	0.014860	0.013051	9576.81	1.00	9608.25	1.62
187	924.35	0.000000	0.00	0.014814	0.013066	9173.01	0.85	9202.58	1.16
188	927.61	0.000000	0.00	0.014844	0.013077	8783.11	0.87	8808.51	1.63
189	930.87	0.000000	0.00	0.014826	0.013242	8400.68	0.87	8423.78	1.45
190	934.13	0.000000	0.00	0.014837	0.012940	8010.78	0.80	8033.98	1.53
191	937.38	0.000000	0.00	0.014814	0.013013	7613.61	0.83	7635.71	1.37
192	940.63	0.000000	0.00	0.014843	0.012992	7237.61	1.01	7255.05	1.43
193	943.88	0.000000	0.00	0.014790	0.013031	6899.84	0.83	6918.38	1.34
194	947.13	0.000000	0.00	0.014854	0.013136	6607.91	0.86	6628.51	1.49
195	950.38	0.000000	0.00	0.014804	0.013135	6341.78	0.84	6356.65	1.29
196	953.63	0.000000	0.00	0.014843	0.012954	6085.51	0.83	6100.91	1.44
197	956.88	0.000000	0.00	0.014813	0.013105	5833.71	0.85	5847.65	1.77
198	960.12	0.000000	0.00	0.014835	0.012972	5588.14	0.76	5597.98	1.21
199	963.36	0.000000	0.00	0.014795	0.012967	5353.41	0.83	5364.38	1.60
200	966.60	0.000000	0.00	0.014834	0.013205	5123.28	0.75	5133.98	1.69
201	969.84	0.000000	0.00	0.014808	0.012979	4897.91	0.73	4908.11	1.35
202	973.08	0.000000	0.00	0.014840	0.012957	4675.64	0.83	4687.25	1.53
203	976.31	0.000000	0.00	0.014813	0.012990	4458.04	0.82	4465.65	1.30
204	979.55	0.000000	0.00	0.014838	0.012924	4241.41	0.75	4250.11	1.70
205	982.78	0.000000	0.00	0.014810	0.012906	4026.14	0.73	4037.05	1.66
206	986.01	0.000000	0.00	0.014826	0.012950	3817.31	0.87	3825.38	1.23
207	989.24	0.000000	0.00	0.014800	0.013098	3611.31	0.54	3620.85	1.39
208	992.47	0.000000	0.00	0.014850	0.012868	3406.28	0.74	3414.78	1.39
209	995.70	0.000000	0.00	0.014817	0.013175	3207.51	0.73	3215.18	1.54
210	998.92	0.000000	0.00	0.014797	0.013030	3011.94	0.80	3018.78	1.41
211	1002.14	0.000000	0.00	0.014791	0.013069	2821.84	0.77	2828.18	1.36
212	1005.36	0.000000	0.00	0.014837	0.012940	2639.14	0.72	2645.38	1.41
213	1008.58	0.000000	0.00	0.014813	0.013030	2461.14	0.77	2463.91	1.47
214	1011.80	0.000000	0.00	0.014856	0.012951	2288.38	0.71	2292.18	1.49
215	1015.02	0.000000	0.00	0.014810	0.012958	2122.68	0.70	2124.25	1.38
216	1018.23	0.000000	0.00	0.014830	0.013056	1959.58	0.80	1963.71	1.27
217	1021.44	0.000000	0.00	0.014790	0.012927	1804.88	0.63	1807.05	1.50
218	1024.65	0.000000	0.00	0.014815	0.012897	1651.48	0.82	1654.11	1.63
219	1027.86	0.000000	0.00	0.014800	0.013006	1501.98	0.79	1503.51	1.30
220	1031.07	0.000000	0.00	0.014824	0.012849	1352.64	0.82	1354.11	1.47
221	1034.27	0.000000	0.00	0.014783	0.012948	1211.58	0.62	1211.91	1.44
222	1037.48	0.000000	0.00	0.014837	0.012911	1073.81	0.57	1077.85	1.33
223	1040.68	0.000000	0.00	0.014810	0.012914	946.38	0.72	949.78	1.45
224	1043.88	0.000000	0.00	0.014834	0.013063	828.34	0.68	828.51	1.47
225	1047.08	0.000000	0.00	0.014796	0.013054	718.11	0.73	722.31	1.26
226	1050.27	0.000000	0.00	0.014820	0.012974	619.38	0.85	619.78	1.37
227	1053.47	0.000000	0.00	0.014782	0.012811	530.04	0.71	530.58	1.48
228	1056.66	0.000000	0.00	0.014806	0.012949	451.48	0.73	453.78	1.54
229	1059.85	0.000000	0.00	0.014793	0.012803	378.51	0.71	377.65	1.58
230	1063.04	0.000000	0.00	0.014816	0.013025	315.14	0.64	315.05	1.50
231	1066.23	0.000000	0.00	0.014789	0.012908	260.68	0.63	261.11	1.59
232	1069.41	0.000000	0.00	0.014829	0.012949	214.31	0.64	215.31	1.43
233	1072.59	0.000000	0.00	0.014783	0.013093	175.04	0.63	175.25	1.60
234	1075.78	0.000000	0.00	0.014826	0.013172	140.41	0.70	137.38	1.24
235	1078.95	0.000000	0.00	0.014788	0.012899	110.98	0.81	110.91	1.16
236	1082.13	0.000000	0.00	0.014815	0.012879	85.98	0.88	84.71	1.19
237	1085.31	0.000000	0.00	0.014815	0.012970	67.68	0.69	68.31	1.34
238	1088.48	0.000000	0.00	0.014840	0.012892	53.64	0.67	52.45	1.30
239	1091.65	0.000000	0.00	0.014793	0.013043	42.28	0.78	42.91	1.36
240	1094.82	0.000000	0.00	0.014825	0.013042	29.51	0.68	31.45	1.39
241	1097.99	0.000000	0.00	0.014784	0.012809	17.61	0.83	19.11	1.49
242	1101.15	0.000000	0.00	0.014835	0.013061	8.01	0.82	6.71	1.57
243	1104.31	0.000000	0.00	0.014782	0.012836	-1.06	0.75	2.18	1.76
244	1107.48	0.000000	0.00	0.014833	0.012828	-6.56	0.65	-5.55	1.65
245	1110.63	0.000000	0.00	0.014808	0.012988	-11.89	0.74	-10.49	1.29
246	1113.79	0.000000	0.00	0.014819	0.013008	-15.19	0.69	-18.55	1.32
247	1116.95	0.000000	0.00	0.014804	0.012963	-17.36	0.70	-18.69	1.43
248	1120.10	0.000000	0.00	0.014845	0.012768	-19.82	0.58	-20.02	1.51
249	1123.25	0.000000	0.00	0.014810	0.012990	-21.82	0.73	-22.09	1.22
250	1126.40	0.000000	0.00	0.014869	0.013064	-23.66	0.69	-23.82	1.50
251	1129.54	0.000000	0.00	0.014815	0.013105	-24.36	0.82	-24.55	1.59
252	1132.69	0.000000	0.00	0.014898	0.012922	-24.96	0.76	-29.15	1.39
253	1135.83	0.000000	0.00	0.014878	0.012957	-25.09	0.71	-24.55	1.23
254	1138.97	0.000000	0.00	0.014978	0.013004	-26.99	0.74	-25.69	1.33
255	1142.11	0.000000	0.00	0.015370	0.013094	-27.66	0.70	-31.29	1.28
[END_OF_CALDATA]
